File: Fm40_ns_21nc_4_r3.txt
Stroke (mm),Force (N)
13.2339,0.0124837
4.11663,1.9902
2.48717,3.99641
1.80676,5.99836
1.36631,8.00501
1.05978,10.006
0.884774,12.0122
0.757131,14.0139
0.644085,16.0193
0.561105,18.0232
0.489946,20.0273
0.434573,22.0307
0.373489,24.0348
0.293047,26.0361
0.2418,28.0423
0.199754,30.0474
0.12328,32.0504
0.105034,34.0546
0.0893263,36.0547
0.0547381,38.0598
0.0401413,40.0598