File: SF_T_string_05Hz_6kV_Rampedsquare_25kVs_2022_10_25_1312.txt
Stroke (mm),Force (N)
8.5265,-0.0110418
2.57351,1.9898
1.65541,3.99472
1.25233,5.99532
0.988632,8.00045
0.80847,10.0001
0.716921,12.0051
0.633861,14.0057
0.568333,16.0094
0.499473,18.0118
0.443148,20.0146
0.399198,22.0165
0.357866,24.0193
0.319787,26.0198
0.257353,28.0247
0.220384,30.0288
0.166994,32.0306
0.125503,34.0335
0.110747,36.0324
0.098451,38.0363
0.0874239,40.0356